LIU525B,
Wavelength (nm),Normalized Intensity
199.97546,0.00000
200.17692,0.00000
200.37839,0.00000
200.57989,0.00000
200.78140,0.00000
200.98293,0.00000
201.18448,0.00000
201.38605,0.00000
201.58764,0.00000
201.78925,0.00000
201.99087,0.00000
202.19252,0.00000
202.39418,0.00000
202.59586,0.00000
202.79756,0.00000
202.99928,0.00000
203.20102,0.00000
203.40278,0.00000
203.60455,0.00000
203.80635,0.00000
204.00816,0.00000
204.20999,0.00000
204.41184,0.00000
204.61371,0.00000
204.81560,0.00000
205.01750,0.00000
205.21943,0.00000
205.42137,0.00000
205.62334,0.00000
205.82532,0.00000
206.02732,0.00000
206.22934,0.00000
206.43137,0.00000
206.63343,0.00000
206.83551,0.00000
207.03760,0.00000
207.23971,0.00000
207.44184,0.00000
207.64399,0.00000
207.84616,0.00000
208.04835,0.00000
208.25055,0.00000
208.45278,0.00000
208.65502,0.00000
208.85728,0.00000
209.05956,0.00000
209.26186,0.00000
209.46418,0.00000
209.66651,0.00000
209.86887,0.00000
210.07124,0.00000
210.27363,0.00000
210.47604,0.00000
210.67847,0.00000
210.88092,0.00000
211.08338,0.00000
211.28587,0.00000
211.48837,0.00000
211.69089,0.00000
211.89343,0.00000
212.09599,0.00000
212.29857,0.00000
212.50117,0.00000
212.70378,0.00000
212.90641,0.00000
213.10907,0.00000
213.31174,0.00000
213.51442,0.00000
213.71713,0.00000
213.91986,0.00000
214.12260,0.00000
214.32537,0.00000
214.52815,0.00000
214.73095,0.00000
214.93376,0.00000
215.13660,0.00000
215.33946,0.00000
215.54233,0.00000
215.74522,0.00000
215.94813,0.00000
216.15106,0.00000
216.35401,0.00000
216.55698,0.00000
216.75996,0.00000
216.96297,0.00000
217.16599,0.00000
217.36903,0.00000
217.57209,0.00000
217.77517,0.00000
217.97826,0.00000
218.18138,0.00000
218.38451,0.00000
218.58766,0.00000
218.79083,0.00000
218.99402,0.00000
219.19722,0.00000
219.40045,0.00000
219.60369,0.00000
219.80695,0.00000
220.01023,0.00000
220.21353,0.00000
220.41685,0.00000
220.62018,0.00000
220.82354,0.00000
221.02691,0.00000
221.23030,0.00000
221.43371,0.00000
221.63713,0.00000
221.84058,0.00000
222.04404,0.00000
222.24753,0.00000
222.45103,0.00000
222.65455,0.00000
222.85808,0.00000
223.06164,0.00000
223.26521,0.00000
223.46881,0.00000
223.67242,0.00000
223.87605,0.00000
224.07969,0.00000
224.28336,0.00000
224.48704,0.00000
224.69075,0.00000
224.89447,0.00000
225.09820,0.00000
225.30196,0.00000
225.50574,0.00000
225.70953,0.00000
225.91334,0.00000
226.11717,0.00000
226.32102,0.00000
226.52489,0.00000
226.72878,0.00000
226.93268,0.00000
227.13660,0.00000
227.34054,0.00000
227.54450,0.00000
227.74848,0.00000
227.95247,0.00000
228.15649,0.00000
228.36052,0.00000
228.56457,0.00000
228.76863,0.00000
228.97272,0.00000
229.17683,0.00000
229.38095,0.00000
229.58509,0.00000
229.78925,0.00000
229.99343,0.00000
230.19762,0.00000
230.40183,0.00000
230.60607,0.00000
230.81032,0.00000
231.01459,0.00000
231.21887,0.00000
231.42318,0.00000
231.62750,0.00000
231.83184,0.00000
232.03620,0.00000
232.24058,0.00000
232.44497,0.00000
232.64939,0.00000
232.85382,0.00000
233.05827,0.00000
233.26274,0.00000
233.46722,0.00000
233.67173,0.00000
233.87625,0.00000
234.08079,0.00000
234.28535,0.00000
234.48993,0.00000
234.69452,0.00000
234.89914,0.00000
235.10377,0.00000
235.30842,0.00000
235.51309,0.00000
235.71777,0.00000
235.92248,0.00000
236.12720,0.00000
236.33194,0.00000
236.53670,0.00000
236.74147,0.00000
236.94627,0.00000
237.15108,0.00000
237.35591,0.00000
237.56076,0.00000
237.76563,0.00000
237.97051,0.00000
238.17541,0.00000
238.38033,0.00000
238.58527,0.00000
238.79023,0.00000
238.99520,0.00000
239.20020,0.00000
239.40521,0.00000
239.61024,0.00000
239.81529,0.00000
240.02035,0.00000
240.22543,0.00000
240.43053,0.00000
240.63565,0.00000
240.84079,0.00000
241.04595,0.00000
241.25112,0.00000
241.45631,0.00000
241.66152,0.00000
241.86675,0.00000
242.07199,0.00000
242.27726,0.00000
242.48254,0.00000
242.68784,0.00000
242.89315,0.00000
243.09849,0.00000
243.30384,0.00000
243.50921,0.00000
243.71460,0.00000
243.92001,0.00000
244.12543,0.00000
244.33087,0.00000
244.53633,0.00000
244.74181,0.00000
244.94731,0.00000
245.15282,0.00000
245.35836,0.00000
245.56391,0.00000
245.76948,0.00000
245.97506,0.00000
246.18067,0.00000
246.38629,0.00000
246.59193,0.00000
246.79758,0.00000
247.00326,0.00000
247.20895,0.00000
247.41466,0.00000
247.62039,0.00000
247.82614,0.00000
248.03191,0.00000
248.23769,0.00000
248.44349,0.00000
248.64931,0.00000
248.85514,0.00000
249.06100,0.00000
249.26687,0.00000
249.47276,0.00000
249.67867,0.00000
249.88459,0.00000
250.09054,0.00000
250.29650,0.00000
250.50248,0.00000
250.70847,0.00000
250.91449,0.00000
251.12052,0.00000
251.32657,0.00000
251.53264,0.00000
251.73872,0.00000
251.94483,0.00000
252.15095,0.00000
252.35709,0.00000
252.56325,0.00000
252.76942,0.00000
252.97561,0.00000
253.18182,0.00000
253.38805,0.00000
253.59430,0.00000
253.80056,0.00000
254.00684,0.00000
254.21314,0.00000
254.41946,0.00000
254.62579,0.00000
254.83214,0.00000
255.03851,0.00000
255.24490,0.00000
255.45131,0.00000
255.65773,0.00000
255.86417,0.00000
256.07063,0.00000
256.27711,0.00000
256.48360,0.00000
256.69011,0.00000
256.89664,0.00000
257.10319,0.00000
257.30975,0.00000
257.51634,0.00000
257.72294,0.00000
257.92955,0.00000
258.13619,0.00000
258.34284,0.00000
258.54951,0.00000
258.75620,0.00000
258.96291,0.00000
259.16963,0.00000
259.37637,0.00000
259.58313,0.00000
259.78991,0.00000
259.99670,0.00000
260.20351,0.00000
260.41034,0.00000
260.61719,0.00000
260.82406,0.00000
261.03094,0.00000
261.23784,0.00000
261.44476,0.00000
261.65169,0.00000
261.85864,0.00000
262.06561,0.00000
262.27260,0.00000
262.47961,0.00000
262.68663,0.00000
262.89367,0.00000
263.10073,0.00000
263.30781,0.00000
263.51490,0.00000
263.72201,0.00000
263.92914,0.00000
264.13629,0.00000
264.34345,0.00000
264.55063,0.00000
264.75783,0.00000
264.96505,0.00000
265.17228,0.00000
265.37953,0.00000
265.58680,0.00000
265.79409,0.00000
266.00139,0.00000
266.20871,0.00000
266.41605,0.00000
266.62341,0.00000
266.83078,0.00000
267.03817,0.00000
267.24558,0.00000
267.45301,0.00000
267.66045,0.00000
267.86791,0.00000
268.07539,0.00000
268.28289,0.00000
268.49040,0.00000
268.69793,0.00000
268.90548,0.00000
269.11305,0.00000
269.32063,0.00000
269.52823,0.00000
269.73585,0.00000
269.94349,0.00000
270.15114,0.00000
270.35881,0.00000
270.56650,0.00000
270.77421,0.00000
270.98193,0.00000
271.18967,0.00000
271.39743,0.00000
271.60521,0.00000
271.81300,0.00000
272.02081,0.00000
272.22864,0.00000
272.43648,0.00000
272.64434,0.00000
272.85222,0.00000
273.06012,0.00000
273.26804,0.00000
273.47597,0.00000
273.68392,0.00000
273.89188,0.00000
274.09987,0.00000
274.30787,0.00000
274.51589,0.00000
274.72392,0.00000
274.93198,0.00000
275.14005,0.00000
275.34814,0.00000
275.55624,0.00000
275.76437,0.00000
275.97251,0.00000
276.18066,0.00000
276.38884,0.00000
276.59703,0.00000
276.80524,0.00000
277.01347,0.00000
277.22171,0.00000
277.42997,0.00000
277.63825,0.00000
277.84655,0.00000
278.05486,0.00000
278.26319,0.00000
278.47154,0.00000
278.67990,0.00000
278.88829,0.00000
279.09669,0.00000
279.30510,0.00000
279.51354,0.00000
279.72199,0.00000
279.93046,0.00000
280.13894,0.00000
280.34745,0.00000
280.55597,0.00000
280.76450,0.00000
280.97306,0.00000
281.18163,0.00000
281.39022,0.00000
281.59883,0.00000
281.80745,0.00000
282.01609,0.00000
282.22475,0.00000
282.43342,0.00000
282.64212,0.00000
282.85083,0.00000
283.05955,0.00000
283.26830,0.00000
283.47706,0.00000
283.68584,0.00000
283.89463,0.00000
284.10345,0.00000
284.31228,0.00000
284.52112,0.00000
284.72999,0.00000
284.93887,0.00000
285.14777,0.00000
285.35668,0.00000
285.56562,0.00000
285.77457,0.00000
285.98353,0.00000
286.19252,0.00000
286.40152,0.00000
286.61054,0.00000
286.81957,0.00000
287.02863,0.00000
287.23770,0.00000
287.44678,0.00000
287.65589,0.00000
287.86501,0.00000
288.07415,0.00000
288.28330,0.00000
288.49248,0.00000
288.70167,0.00000
288.91087,0.00000
289.12010,0.00000
289.32934,0.00000
289.53859,0.00000
289.74787,0.00000
289.95716,0.00000
290.16647,0.00000
290.37580,0.00000
290.58514,0.00000
290.79450,0.00000
291.00388,0.00000
291.21327,0.00000
291.42268,0.00000
291.63211,0.00000
291.84156,0.00000
292.05102,0.00000
292.26050,0.00000
292.47000,0.00000
292.67951,0.00000
292.88904,0.00000
293.09859,0.00000
293.30815,0.00000
293.51773,0.00000
293.72733,0.00000
293.93695,0.00000
294.14658,0.00000
294.35623,0.00000
294.56589,0.00000
294.77558,0.00000
294.98528,0.00000
295.19500,0.00000
295.40473,0.00000
295.61448,0.00000
295.82425,0.00000
296.03403,0.00000
296.24384,0.00000
296.45366,0.00000
296.66349,0.00000
296.87334,0.00000
297.08321,0.00000
297.29310,0.00000
297.50300,0.00000
297.71292,0.00000
297.92286,0.00000
298.13282,0.00000
298.34279,0.00000
298.55277,0.00000
298.76278,0.00000
298.97280,0.00000
299.18284,0.00000
299.39290,0.00000
299.60297,0.00000
299.81306,0.00000
300.02316,0.00000
300.23329,0.00000
300.44343,0.00000
300.65358,0.00000
300.86376,0.00000
301.07395,0.00000
301.28416,0.00000
301.49438,0.00000
301.70462,0.00000
301.91488,0.00000
302.12515,0.00000
302.33544,0.00000
302.54575,0.00000
302.75608,0.00000
302.96642,0.00000
303.17678,0.00000
303.38715,0.00000
303.59755,0.00000
303.80796,0.00000
304.01838,0.00000
304.22882,0.00000
304.43928,0.00000
304.64976,0.00000
304.86025,0.00000
305.07076,0.00000
305.28129,0.00000
305.49183,0.00000
305.70239,0.00000
305.91297,0.00000
306.12356,0.00000
306.33417,0.00000
306.54480,0.00000
306.75545,0.00000
306.96611,0.00000
307.17678,0.00000
307.38748,0.00000
307.59819,0.00000
307.80892,0.00000
308.01966,0.00000
308.23042,0.00000
308.44120,0.00000
308.65199,0.00000
308.86280,0.00000
309.07363,0.00000
309.28448,0.00000
309.49534,0.00000
309.70622,0.00000
309.91711,0.00000
310.12802,0.00000
310.33895,0.00000
310.54989,0.00000
310.76085,0.00000
310.97183,0.00000
311.18283,0.00000
311.39384,0.00000
311.60487,0.00000
311.81591,0.00000
312.02697,0.00000
312.23805,0.00000
312.44914,0.00000
312.66025,0.00000
312.87138,0.00000
313.08253,0.00000
313.29369,0.00000
313.50486,0.00000
313.71606,0.00000
313.92727,0.00000
314.13850,0.00000
314.34974,0.00000
314.56100,0.00000
314.77228,0.00000
314.98357,0.00000
315.19488,0.00000
315.40621,0.00000
315.61755,0.00000
315.82891,0.00000
316.04029,0.00000
316.25168,0.00000
316.46309,0.00000
316.67452,0.00000
316.88596,0.00000
317.09742,0.00000
317.30890,0.00000
317.52039,0.00000
317.73190,0.00000
317.94342,0.00000
318.15496,0.00000
318.36652,0.00000
318.57810,0.00000
318.78969,0.00000
319.00130,0.00000
319.21292,0.00000
319.42456,0.00000
319.63622,0.00000
319.84789,0.00000
320.05958,0.00000
320.27129,0.00000
320.48302,0.00000
320.69476,0.00000
320.90651,0.00000
321.11828,0.00000
321.33007,0.00000
321.54188,0.00000
321.75370,0.00000
321.96554,0.00000
322.17740,0.00000
322.38927,0.00000
322.60116,0.00000
322.81306,0.00000
323.02498,0.00000
323.23692,0.00000
323.44887,0.00000
323.66084,0.00000
323.87283,0.00000
324.08483,0.00000
324.29685,0.00000
324.50889,0.00000
324.72094,0.00000
324.93301,0.00000
325.14509,0.00000
325.35719,0.00000
325.56931,0.00000
325.78145,0.00000
325.99360,0.00000
326.20576,0.00000
326.41795,0.00000
326.63015,0.00000
326.84236,0.00000
327.05460,0.00000
327.26684,0.00000
327.47911,0.00000
327.69139,0.00000
327.90369,0.00000
328.11600,0.00000
328.32833,0.00000
328.54068,0.00000
328.75304,0.00000
328.96542,0.00000
329.17782,0.00000
329.39023,0.00000
329.60266,0.00000
329.81510,0.00000
330.02756,0.00000
330.24004,0.00000
330.45253,0.00000
330.66504,0.00000
330.87757,0.00000
331.09011,0.00000
331.30267,0.00000
331.51525,0.00000
331.72784,0.00000
331.94045,0.00000
332.15307,0.00000
332.36571,0.00000
332.57837,0.00000
332.79104,0.00000
333.00373,0.00000
333.21643,0.00000
333.42915,0.00000
333.64189,0.00000
333.85464,0.00000
334.06741,0.00000
334.28020,0.00000
334.49300,0.00000
334.70582,0.00000
334.91866,0.00000
335.13151,0.00000
335.34437,0.00000
335.55726,0.00000
335.77016,0.00000
335.98307,0.00000
336.19600,0.00000
336.40895,0.00000
336.62192,0.00000
336.83490,0.00000
337.04789,0.00000
337.26091,0.00000
337.47394,0.00000
337.68698,0.00000
337.90004,0.00000
338.11312,0.00000
338.32621,0.00000
338.53932,0.00000
338.75245,0.00000
338.96559,0.00000
339.17875,0.00000
339.39192,0.00000
339.60511,0.00000
339.81832,0.00000
340.03154,0.00000
340.24478,0.00000
340.45804,0.00000
340.67131,0.00000
340.88459,0.00000
341.09790,0.00000
341.31122,0.00000
341.52455,0.00000
341.73790,0.00000
341.95127,0.00000
342.16465,0.00000
342.37805,0.00000
342.59147,0.00000
342.80490,0.00000
343.01835,0.00000
343.23181,0.00000
343.44529,0.00000
343.65879,0.00000
343.87230,0.00000
344.08583,0.00000
344.29937,0.00000
344.51293,0.00000
344.72651,0.00000
344.94010,0.00000
345.15371,0.00000
345.36733,0.00000
345.58097,0.00000
345.79463,0.00000
346.00830,0.00000
346.22199,0.00000
346.43569,0.00000
346.64941,0.00000
346.86315,0.00000
347.07690,0.00000
347.29067,0.00000
347.50446,0.00000
347.71826,0.00000
347.93207,0.00000
348.14590,0.00000
348.35975,0.00000
348.57362,0.00000
348.78749,0.00000
349.00139,0.00000
349.21530,0.00000
349.42923,0.00000
349.64317,0.00000
349.85713,0.00000
350.07111,0.00000
350.28510,0.00000
350.49911,0.00000
350.71313,0.00000
350.92717,0.00000
351.14122,0.00000
351.35530,0.00000
351.56938,0.00000
351.78349,0.00000
351.99760,0.00000
352.21174,0.00000
352.42589,0.00000
352.64005,0.00000
352.85424,0.00000
353.06844,0.00000
353.28265,0.00000
353.49688,0.00000
353.71112,0.00000
353.92539,0.00000
354.13966,0.00000
354.35396,0.00000
354.56827,0.00000
354.78259,0.00000
354.99693,0.00000
355.21129,0.00000
355.42566,0.00000
355.64005,0.00000
355.85445,0.00000
356.06887,0.00000
356.28331,0.00000
356.49776,0.00000
356.71223,0.00000
356.92671,0.00000
357.14121,0.00000
357.35572,0.00000
357.57025,0.00000
357.78480,0.00000
357.99936,0.00000
358.21394,0.00000
358.42853,0.00000
358.64314,0.00000
358.85777,0.00000
359.07241,0.00000
359.28706,0.00000
359.50173,0.00000
359.71642,0.00000
359.93113,0.00000
360.14585,0.00000
360.36058,0.00000
360.57533,0.00000
360.79010,0.00000
361.00488,0.00000
361.21968,0.00000
361.43449,0.00000
361.64932,0.00000
361.86417,0.00000
362.07903,0.00000
362.29391,0.00000
362.50880,0.00000
362.72371,0.00000
362.93863,0.00000
363.15357,0.00000
363.36852,0.00000
363.58349,0.00000
363.79848,0.00000
364.01348,0.00000
364.22850,0.00000
364.44353,0.00000
364.65858,0.00000
364.87365,0.00000
365.08873,0.00000
365.30382,0.00000
365.51894,0.00000
365.73406,0.00000
365.94921,0.00000
366.16436,0.00000
366.37954,0.00000
366.59473,0.00000
366.80993,0.00000
367.02515,0.00000
367.24039,0.00000
367.45564,0.00000
367.67091,0.00000
367.88619,0.00000
368.10149,0.00000
368.31681,0.00000
368.53214,0.00000
368.74748,0.00000
368.96285,0.00000
369.17822,0.00000
369.39361,0.00000
369.60902,0.00000
369.82445,0.00000
370.03989,0.00000
370.25534,0.00000
370.47081,0.00000
370.68630,0.00000
370.90180,0.00000
371.11731,0.00000
371.33285,0.00000
371.54839,0.00000
371.76396,0.00000
371.97954,0.00000
372.19513,0.00000
372.41074,0.00000
372.62637,0.00000
372.84201,0.00000
373.05766,0.00000
373.27334,0.00000
373.48902,0.00000
373.70473,0.00000
373.92044,0.00000
374.13618,0.00000
374.35193,0.00000
374.56769,0.00000
374.78347,0.00000
374.99927,0.00000
375.21508,0.00000
375.43091,0.00000
375.64675,0.00000
375.86261,0.00000
376.07848,0.00000
376.29437,0.00000
376.51027,0.00000
376.72619,0.00000
376.94213,0.00000
377.15808,0.00000
377.37404,0.00000
377.59002,0.00000
377.80602,0.00000
378.02203,0.00000
378.23806,0.00000
378.45410,0.00000
378.67016,0.00000
378.88623,0.00000
379.10232,0.00000
379.31842,0.00000
379.53454,0.00000
379.75068,0.00000
379.96683,0.00000
380.18300,0.00000
380.39918,0.00000
380.61537,0.00000
380.83158,0.00000
381.04781,0.00405
381.26405,-0.00691
381.48031,0.00516
381.69659,-0.00640
381.91287,0.00117
382.12918,-0.00729
382.34550,0.00604
382.56183,-0.00846
382.77818,0.00153
382.99455,0.00012
383.21093,-0.00073
383.42732,-0.00075
383.64373,-0.00295
383.86016,-0.00676
384.07660,0.00177
384.29306,-0.00476
384.50953,-0.00371
384.72602,-0.00007
384.94252,0.00262
385.15904,-0.01143
385.37557,0.00263
385.59212,-0.00686
385.80868,0.00008
386.02526,-0.00518
386.24186,0.00197
386.45847,-0.00887
386.67509,0.00070
386.89173,-0.00051
387.10839,0.00112
387.32506,-0.00182
387.54174,0.00640
387.75844,0.00197
387.97516,0.00037
388.19189,-0.00327
388.40864,0.00172
388.62540,-0.00399
388.84218,0.00146
389.05897,-0.00663
389.27578,0.00571
389.49260,-0.00417
389.70944,0.00436
389.92629,-0.00293
390.14316,-0.00111
390.36004,-0.00152
390.57694,-0.00273
390.79385,-0.00431
391.01078,0.00049
391.22773,-0.00270
391.44469,0.00082
391.66166,-0.00382
391.87865,0.00109
392.09566,-0.00641
392.31268,-0.00124
392.52971,-0.00302
392.74676,-0.00104
392.96383,-0.00633
393.18091,0.00319
393.39800,-0.00306
393.61511,0.00475
393.83224,-0.00550
394.04938,0.00213
394.26653,-0.00371
394.48371,0.00161
394.70089,0.00205
394.91809,0.00304
395.13531,-0.00247
395.35254,-0.00012
395.56979,-0.00415
395.78705,0.00122
396.00433,-0.00364
396.22162,0.00152
396.43892,-0.00476
396.65625,0.00066
396.87358,-0.00187
397.09094,0.00143
397.30830,-0.00681
397.52568,0.00222
397.74308,-0.00186
397.96049,-0.00005
398.17792,-0.00229
398.39536,0.00046
398.61282,-0.00565
398.83029,-0.00011
399.04778,-0.00568
399.26528,-0.00107
399.48280,-0.00552
399.70033,-0.00174
399.91788,-0.00208
400.13544,0.00575
400.35302,0.00175
400.57061,0.00036
400.78822,-0.00624
401.00584,-0.00149
401.22348,0.00191
401.44113,0.00115
401.65880,-0.00066
401.87648,-0.00318
402.09418,-0.00239
402.31189,-0.00277
402.52962,-0.00361
402.74736,-0.00010
402.96512,0.00114
403.18289,0.00164
403.40067,-0.00416
403.61848,0.00259
403.83629,0.00073
404.05412,0.00151
404.27197,-0.00063
404.48983,0.00084
404.70771,-0.00150
404.92560,0.00077
405.14351,-0.00321
405.36143,0.00195
405.57936,-0.00288
405.79731,0.00284
406.01528,-0.00435
406.23326,0.00261
406.45126,0.00029
406.66927,0.00179
406.88729,0.00031
407.10533,0.00023
407.32339,-0.00191
407.54146,-0.00040
407.75954,-0.00342
407.97764,-0.00168
408.19576,-0.00397
408.41389,-0.00084
408.63203,0.00127
408.85019,-0.00264
409.06836,0.00191
409.28655,-0.00154
409.50476,0.00152
409.72297,-0.00072
409.94121,0.00182
410.15946,-0.00228
410.37772,0.00403
410.59600,-0.00208
410.81429,-0.00144
411.03260,-0.00154
411.25092,0.00380
411.46925,-0.00130
411.68761,0.00042
411.90597,-0.00206
412.12435,0.00058
412.34275,0.00021
412.56116,0.00120
412.77959,-0.00246
412.99803,0.00048
413.21648,-0.00038
413.43495,0.00431
413.65344,-0.00252
413.87193,-0.00027
414.09045,0.00179
414.30898,0.00312
414.52752,-0.00126
414.74608,0.00148
414.96465,-0.00308
415.18324,0.00095
415.40184,-0.00105
415.62046,0.00047
415.83909,-0.00183
416.05774,0.00269
416.27640,-0.00312
416.49508,0.00137
416.71377,-0.00400
416.93247,0.00126
417.15119,-0.00525
417.36993,0.00049
417.58868,-0.00232
417.80744,0.00520
418.02622,-0.00343
418.24501,-0.00009
418.46382,-0.00480
418.68264,0.00318
418.90148,-0.00309
419.12033,0.00083
419.33920,-0.00391
419.55808,0.00348
419.77698,-0.00180
419.99589,0.00139
420.21481,-0.00209
420.43375,-0.00017
420.65271,-0.00191
420.87167,0.00074
421.09066,-0.00298
421.30966,0.00351
421.52867,-0.00183
421.74770,0.00269
421.96674,-0.00111
422.18580,-0.00038
422.40487,0.00105
422.62395,0.00175
422.84305,-0.00254
423.06217,-0.00285
423.28130,0.00024
423.50044,0.00133
423.71960,-0.00232
423.93878,0.00165
424.15796,-0.00389
424.37717,0.00215
424.59638,0.00044
424.81561,-0.00046
425.03486,-0.00310
425.25412,0.00282
425.47340,-0.00086
425.69269,-0.00389
425.91199,-0.00425
426.13131,0.00201
426.35064,-0.00113
426.56999,0.00030
426.78935,-0.00512
427.00873,-0.00007
427.22812,0.00150
427.44753,0.00079
427.66695,-0.00332
427.88638,0.00217
428.10583,-0.00186
428.32530,0.00169
428.54477,0.00005
428.76427,0.00114
428.98377,-0.00012
429.20330,0.00095
429.42283,-0.00302
429.64238,-0.00031
429.86195,-0.00385
430.08153,-0.00005
430.30112,-0.00218
430.52073,0.00260
430.74035,-0.00262
430.95999,0.00175
431.17964,-0.00215
431.39931,0.00308
431.61899,-0.00253
431.83868,0.00150
432.05839,-0.00149
432.27812,-0.00100
432.49785,-0.00290
432.71761,0.00006
432.93737,-0.00259
433.15716,-0.00144
433.37695,-0.00264
433.59676,0.00102
433.81659,-0.00090
434.03643,-0.00019
434.25628,-0.00058
434.47615,0.00199
434.69603,-0.00006
434.91593,0.00295
435.13584,-0.00073
435.35576,-0.00021
435.57570,-0.00062
435.79565,0.00205
436.01562,-0.00148
436.23561,-0.00013
436.45560,-0.00146
436.67561,0.00130
436.89564,-0.00133
437.11568,0.00142
437.33573,-0.00193
437.55580,0.00100
437.77589,-0.00225
437.99598,0.00341
438.21609,-0.00220
438.43622,-0.00019
438.65636,-0.00260
438.87651,0.00166
439.09668,-0.00203
439.31687,0.00107
439.53706,-0.00269
439.75727,0.00058
439.97750,-0.00186
440.19774,0.00200
440.41799,-0.00165
440.63826,0.00134
440.85855,0.00001
441.07884,0.00319
441.29915,-0.00077
441.51948,0.00038
441.73982,-0.00087
441.96017,0.00200
442.18054,-0.00108
442.40092,0.00186
442.62132,-0.00094
442.84173,-0.00027
443.06216,-0.00112
443.28260,-0.00036
443.50305,-0.00170
443.72352,0.00162
443.94400,-0.00053
444.16450,0.00047
444.38501,-0.00051
444.60553,-0.00090
444.82607,-0.00127
445.04662,0.00058
445.26719,-0.00372
445.48777,0.00043
445.70837,-0.00163
445.92898,0.00068
446.14960,-0.00176
446.37024,0.00296
446.59089,-0.00136
446.81156,0.00094
447.03224,0.00023
447.25293,-0.00122
447.47364,-0.00282
447.69436,0.00141
447.91510,-0.00120
448.13585,0.00022
448.35662,-0.00024
448.57740,0.00307
448.79819,-0.00212
449.01900,0.00384
449.23982,-0.00117
449.46065,0.00031
449.68150,-0.00143
449.90237,-0.00021
450.12325,0.00101
450.34414,-0.00080
450.56504,-0.00249
450.78597,-0.00234
451.00690,-0.00438
451.22785,-0.00032
451.44881,-0.00164
451.66979,0.00241
451.89078,0.00026
452.11178,0.00095
452.33280,-0.00230
452.55383,0.00143
452.77488,0.00100
452.99594,-0.00032
453.21702,-0.00446
453.43811,0.00145
453.65921,-0.00116
453.88032,0.00289
454.10146,-0.00236
454.32260,0.00386
454.54376,0.00138
454.76493,0.00009
454.98612,-0.00124
455.20732,0.00129
455.42854,-0.00081
455.64976,0.00192
455.87101,0.00003
456.09226,0.00303
456.31354,0.00037
456.53482,0.00035
456.75612,-0.00095
456.97743,0.00206
457.19876,-0.00143
457.42010,0.00026
457.64145,-0.00074
457.86282,-0.00011
458.08421,-0.00015
458.30560,-0.00032
458.52701,0.00029
458.74844,0.00168
458.96988,0.00057
459.19133,0.00243
459.41279,0.00182
459.63427,0.00162
459.85577,-0.00112
460.07728,0.00046
460.29880,-0.00018
460.52033,0.00026
460.74188,-0.00021
460.96345,0.00166
461.18502,-0.00289
461.40662,0.00037
461.62822,0.00007
461.84984,0.00054
462.07147,-0.00076
462.29312,0.00181
462.51478,-0.00014
462.73645,0.00206
462.95814,0.00021
463.17984,0.00019
463.40156,0.00118
463.62329,0.00247
463.84503,0.00020
464.06679,0.00231
464.28856,-0.00056
464.51035,0.00051
464.73215,0.00077
464.95396,0.00289
465.17579,0.00249
465.39763,0.00031
465.61948,0.00218
465.84135,0.00009
466.06323,0.00370
466.28513,0.00073
466.50704,0.00259
466.72896,0.00045
466.95090,0.00332
467.17285,0.00178
467.39481,0.00308
467.61679,0.00050
467.83878,0.00329
468.06079,0.00198
468.28281,0.00449
468.50484,0.00233
468.72689,0.00321
468.94895,0.00324
469.17103,0.00461
469.39312,-0.00095
469.61522,0.00348
469.83733,0.00138
470.05946,0.00308
470.28161,0.00039
470.50376,0.00548
470.72594,0.00386
470.94812,0.00424
471.17032,0.00214
471.39253,0.00431
471.61476,0.00368
471.83700,0.00452
472.05925,0.00335
472.28152,0.00679
472.50380,0.00477
472.72609,0.00445
472.94840,0.00372
473.17072,0.00530
473.39305,0.00318
473.61540,0.00633
473.83777,0.00239
474.06014,0.00532
474.28253,0.00494
474.50494,0.00641
474.72735,0.00591
474.94978,0.00643
475.17223,0.00654
475.39469,0.00810
475.61716,0.00632
475.83964,0.00766
476.06214,0.00623
476.28465,0.00786
476.50718,0.00488
476.72972,0.00892
476.95227,0.00730
477.17484,0.00796
477.39742,0.00737
477.62001,0.00835
477.84262,0.00983
478.06524,0.00879
478.28788,0.00964
478.51053,0.01218
478.73319,0.00848
478.95586,0.01112
479.17855,0.00941
479.40126,0.01215
479.62397,0.00865
479.84670,0.01444
480.06945,0.01225
480.29220,0.01568
480.51497,0.01488
480.73776,0.01396
480.96056,0.01212
481.18337,0.01652
481.40619,0.01497
481.62903,0.01642
481.85188,0.01139
482.07475,0.01798
482.29763,0.01689
482.52052,0.01760
482.74342,0.01701
482.96634,0.01764
483.18928,0.01917
483.41222,0.02106
483.63518,0.01958
483.85815,0.01994
484.08114,0.02175
484.30414,0.02303
484.52715,0.02096
484.75018,0.02319
484.97322,0.02386
485.19628,0.02470
485.41934,0.02360
485.64242,0.02471
485.86552,0.02485
486.08863,0.02884
486.31175,0.02720
486.53488,0.02905
486.75803,0.02826
486.98119,0.02990
487.20437,0.02977
487.42756,0.03400
487.65076,0.03176
487.87397,0.03407
488.09720,0.03431
488.32044,0.03880
488.54370,0.03766
488.76697,0.04015
488.99025,0.03884
489.21354,0.03868
489.43685,0.04217
489.66018,0.04331
489.88351,0.04402
490.10686,0.04050
490.33022,0.04639
490.55360,0.04945
490.77699,0.04872
491.00039,0.05204
491.22381,0.05126
491.44724,0.05454
491.67068,0.05370
491.89413,0.05787
492.11760,0.05659
492.34109,0.06148
492.56458,0.06037
492.78809,0.06418
493.01161,0.06595
493.23515,0.06399
493.45870,0.06837
493.68226,0.06895
493.90584,0.07309
494.12943,0.07716
494.35303,0.07541
494.57664,0.08054
494.80027,0.08332
495.02391,0.08258
495.24757,0.08736
495.47124,0.09240
495.69492,0.09539
495.91862,0.09842
496.14232,0.09773
496.36605,0.09571
496.58978,0.10488
496.81353,0.10796
497.03729,0.10762
497.26107,0.11163
497.48485,0.11260
497.70866,0.11896
497.93247,0.11809
498.15630,0.12249
498.38014,0.12738
498.60399,0.13208
498.82786,0.12868
499.05174,0.13872
499.27564,0.13943
499.49954,0.14550
499.72346,0.14581
499.94740,0.15065
500.17134,0.15483
500.39530,0.15971
500.61928,0.16392
500.84326,0.16922
501.06726,0.17532
501.29127,0.18183
501.51530,0.18277
501.73934,0.19068
501.96339,0.19272
502.18745,0.19718
502.41153,0.20142
502.63562,0.20762
502.85973,0.21359
503.08385,0.22057
503.30798,0.22112
503.53212,0.23009
503.75628,0.23604
503.98045,0.24695
504.20463,0.25197
504.42883,0.25959
504.65304,0.26338
504.87726,0.27200
505.10150,0.27964
505.32575,0.28858
505.55001,0.29606
505.77428,0.30503
505.99857,0.31309
506.22287,0.32133
506.44719,0.32636
506.67151,0.33524
506.89585,0.34393
507.12021,0.35334
507.34457,0.35685
507.56895,0.36550
507.79335,0.38002
508.01775,0.39189
508.24217,0.40045
508.46660,0.41319
508.69105,0.42055
508.91551,0.42866
509.13998,0.44065
509.36446,0.44921
509.58896,0.45540
509.81347,0.46981
510.03799,0.47836
510.26253,0.49164
510.48708,0.50253
510.71164,0.51232
510.93621,0.52271
511.16080,0.53405
511.38540,0.53974
511.61002,0.55186
511.83464,0.55739
512.05928,0.57069
512.28394,0.58147
512.50860,0.59226
512.73328,0.60710
512.95797,0.62675
513.18268,0.63746
513.40740,0.65132
513.63213,0.66043
513.85687,0.66814
514.08163,0.67601
514.30640,0.67970
514.53118,0.68599
514.75597,0.70057
514.98078,0.70700
515.20560,0.72387
515.43044,0.72897
515.65529,0.73926
515.88015,0.74866
516.10502,0.76451
516.32990,0.77143
516.55480,0.79158
516.77972,0.79856
517.00464,0.81337
517.22958,0.82147
517.45453,0.83697
517.67949,0.84610
517.90447,0.85606
518.12946,0.87051
518.35446,0.89172
518.57947,0.89178
518.80450,0.90581
519.02954,0.92097
519.25459,0.93464
519.47966,0.93702
519.70474,0.94311
519.92983,0.94576
520.15493,0.96363
520.38005,0.97523
520.60518,0.97951
520.83033,0.97696
521.05548,0.98282
521.28065,0.98882
521.50583,1.00000
521.73103,0.99299
521.95623,0.99230
522.18145,0.99694
522.40669,0.99307
522.63193,0.99872
522.85719,0.99617
523.08246,0.98905
523.30774,0.99213
523.53304,0.98475
523.75835,0.97782
523.98367,0.97935
524.20901,0.98709
524.43436,0.98329
524.65972,0.98166
524.88509,0.96510
525.11048,0.95702
525.33587,0.95767
525.56129,0.95392
525.78671,0.94445
526.01215,0.94640
526.23760,0.94522
526.46306,0.93775
526.68853,0.91924
526.91402,0.90944
527.13952,0.90125
527.36504,0.89123
527.59056,0.89402
527.81610,0.88321
528.04165,0.87815
528.26722,0.88160
528.49279,0.87174
528.71838,0.86809
528.94398,0.85691
529.16960,0.84740
529.39523,0.83901
529.62087,0.82593
529.84652,0.82336
530.07218,0.82784
530.29786,0.81883
530.52355,0.81228
530.74926,0.80250
530.97497,0.78370
531.20070,0.77747
531.42644,0.76016
531.65220,0.74245
531.87796,0.73408
532.10374,0.72956
532.32953,0.71956
532.55534,0.71296
532.78116,0.69839
533.00698,0.68935
533.23283,0.67990
533.45868,0.66635
533.68455,0.65889
533.91043,0.65364
534.13632,0.64268
534.36223,0.63663
534.58815,0.62865
534.81408,0.62602
535.04002,0.62165
535.26597,0.61075
535.49194,0.60194
535.71792,0.59726
535.94392,0.58705
536.16992,0.57880
536.39594,0.57221
536.62197,0.56120
536.84801,0.55865
537.07407,0.55347
537.30014,0.54402
537.52622,0.54185
537.75231,0.53665
537.97842,0.53293
538.20454,0.52679
538.43067,0.52077
538.65681,0.51761
538.88297,0.51346
539.10914,0.50364
539.33532,0.49809
539.56151,0.49507
539.78772,0.49022
540.01394,0.48524
540.24017,0.47577
540.46641,0.47236
540.69267,0.46792
540.91893,0.45760
541.14522,0.45351
541.37151,0.44742
541.59781,0.44249
541.82413,0.43011
542.05046,0.42581
542.27681,0.42045
542.50316,0.41717
542.72953,0.41022
542.95591,0.40523
543.18230,0.39751
543.40871,0.39363
543.63513,0.38496
543.86156,0.38811
544.08800,0.38244
544.31445,0.38112
544.54092,0.37341
544.76740,0.37191
544.99389,0.36636
545.22040,0.36224
545.44691,0.35676
545.67344,0.35033
545.89999,0.34588
546.12654,0.34035
546.35311,0.33463
546.57968,0.33020
546.80628,0.32711
547.03288,0.32145
547.25950,0.31418
547.48612,0.31324
547.71276,0.30690
547.93942,0.30257
548.16608,0.29782
548.39276,0.29303
548.61945,0.28950
548.84615,0.28499
549.07287,0.28175
549.29959,0.27875
549.52633,0.27363
549.75308,0.27168
549.97985,0.26722
550.20662,0.26459
550.43341,0.25897
550.66021,0.25537
550.88703,0.24586
551.11385,0.24612
551.34069,0.24193
551.56754,0.23943
551.79440,0.23463
552.02128,0.23098
552.24816,0.22779
552.47506,0.22437
552.70197,0.22077
552.92890,0.21746
553.15583,0.21351
553.38278,0.21120
553.60974,0.20627
553.83671,0.20497
554.06370,0.20113
554.29069,0.19781
554.51770,0.19621
554.74473,0.19226
554.97176,0.19039
555.19880,0.18928
555.42586,0.18381
555.65293,0.18287
555.88002,0.17928
556.10711,0.17661
556.33422,0.17226
556.56134,0.17127
556.78847,0.16846
557.01561,0.16555
557.24277,0.16268
557.46993,0.16076
557.69711,0.15749
557.92431,0.15476
558.15151,0.15144
558.37873,0.14892
558.60596,0.14581
558.83320,0.14567
559.06045,0.14050
559.28771,0.14069
559.51499,0.13649
559.74228,0.13668
559.96958,0.13265
560.19690,0.13143
560.42422,0.12924
560.65156,0.12791
560.87891,0.12369
561.10627,0.12402
561.33365,0.12130
561.56103,0.12114
561.78843,0.11866
562.01584,0.11773
562.24326,0.11438
562.47070,0.11335
562.69815,0.11067
562.92560,0.10954
563.15308,0.10693
563.38056,0.10735
563.60805,0.10574
563.83556,0.10429
564.06308,0.09744
564.29061,0.09973
564.51815,0.09519
564.74571,0.09715
564.97328,0.09550
565.20086,0.09553
565.42845,0.09209
565.65605,0.09243
565.88367,0.09068
566.11129,0.08886
566.33893,0.08620
566.56659,0.08599
566.79425,0.08162
567.02192,0.08366
567.24961,0.08117
567.47731,0.08225
567.70502,0.07847
567.93275,0.07830
568.16048,0.07558
568.38823,0.07503
568.61599,0.07357
568.84376,0.07324
569.07155,0.06988
569.29934,0.07079
569.52715,0.06995
569.75497,0.06896
569.98280,0.06596
570.21064,0.06489
570.43850,0.06418
570.66636,0.06389
570.89424,0.06137
571.12213,0.06271
571.35004,0.06059
571.57795,0.06038
571.80588,0.05875
572.03382,0.05803
572.26177,0.05615
572.48973,0.05634
572.71771,0.05555
572.94569,0.05532
573.17369,0.05393
573.40170,0.05289
573.62972,0.05170
573.85776,0.05180
574.08580,0.05040
574.31386,0.05077
574.54193,0.04860
574.77001,0.04836
574.99811,0.04623
575.22621,0.04706
575.45433,0.04690
575.68246,0.04400
575.91060,0.04502
576.13875,0.04402
576.36692,0.04187
576.59509,0.04358
576.82328,0.04168
577.05148,0.04260
577.27969,0.04062
577.50792,0.04100
577.73615,0.03941
577.96440,0.03885
578.19266,0.03692
578.42093,0.03817
578.64921,0.03637
578.87751,0.03656
579.10581,0.03494
579.33413,0.03556
579.56246,0.03407
579.79080,0.03491
580.01916,0.03446
580.24752,0.03148
580.47590,0.03258
580.70429,0.03026
580.93269,0.03124
581.16110,0.02830
581.38952,0.02973
581.61796,0.02703
581.84641,0.02937
582.07487,0.02772
582.30334,0.02822
582.53182,0.02678
582.76032,0.02726
582.98882,0.02697
583.21734,0.02321
583.44587,0.02532
583.67441,0.02695
583.90297,0.02434
584.13153,0.02573
584.36011,0.02187
584.58869,0.02461
584.81729,0.02345
585.04591,0.02405
585.27453,0.02251
585.50317,0.02239
585.73181,0.02076
585.96047,0.01889
586.18914,0.02083
586.41782,0.02134
586.64652,0.01892
586.87522,0.02235
587.10394,0.02081
587.33267,0.01995
587.56141,0.02078
587.79016,0.01974
588.01892,0.01650
588.24770,0.01939
588.47648,0.01940
588.70528,0.01996
588.93409,0.01684
589.16291,0.01825
589.39175,0.01695
589.62059,0.01874
589.84945,0.01695
590.07831,0.01593
590.30719,0.01575
590.53609,0.01520
590.76499,0.01422
590.99390,0.01684
591.22283,0.01322
591.45177,0.01546
591.68072,0.01413
591.90968,0.01466
592.13865,0.01389
592.36763,0.01533
592.59663,0.01342
592.82563,0.01440
593.05465,0.01297
593.28368,0.01418
593.51272,0.01372
593.74178,0.01401
593.97084,0.01241
594.19992,0.01227
594.42901,0.01255
594.65811,0.01153
594.88722,0.01089
595.11634,0.01160
595.34547,0.01189
595.57462,0.01095
595.80377,0.01127
596.03294,0.01168
596.26212,0.01074
596.49131,0.01201
596.72052,0.01063
596.94973,0.01128
597.17896,0.00911
597.40819,0.01053
597.63744,0.00958
597.86670,0.00978
598.09597,0.00934
598.32526,0.01047
598.55455,0.00957
598.78386,0.00960
599.01318,0.00918
599.24250,0.00992
599.47185,0.00835
599.70120,0.00932
599.93056,0.00870
600.15993,0.00917
600.38932,0.00710
600.61872,0.00923
600.84813,0.00790
601.07755,0.00858
601.30698,0.00828
601.53642,0.00875
601.76588,0.00729
601.99534,0.00768
602.22482,0.00711
602.45431,0.00685
602.68381,0.00719
602.91332,0.00779
603.14284,0.00713
603.37238,0.00758
603.60192,0.00743
603.83148,0.00756
604.06105,0.00687
604.29063,0.00739
604.52022,0.00631
604.74982,0.00717
604.97944,0.00586
605.20906,0.00761
605.43870,0.00563
605.66835,0.00636
605.89800,0.00572
606.12768,0.00648
606.35736,0.00522
606.58705,0.00513
606.81675,0.00566
607.04647,0.00587
607.27620,0.00438
607.50594,0.00544
607.73569,0.00493
607.96545,0.00680
608.19522,0.00456
608.42500,0.00600
608.65480,0.00569
608.88460,0.00574
609.11442,0.00489
609.34425,0.00583
609.57409,0.00438
609.80394,0.00529
610.03380,0.00500
610.26368,0.00560
610.49356,0.00538
610.72346,0.00657
610.95336,0.00485
611.18328,0.00645
611.41321,0.00611
611.64315,0.00527
611.87311,0.00542
612.10307,0.00525
612.33304,0.00445
612.56303,0.00442
612.79303,0.00440
613.02304,0.00521
613.25306,0.00338
613.48309,0.00410
613.71313,0.00262
613.94318,0.00466
614.17325,0.00413
614.40332,0.00395
614.63341,0.00313
614.86351,0.00461
615.09362,0.00369
615.32374,0.00345
615.55387,0.00316
615.78401,0.00419
616.01416,0.00282
616.24433,0.00405
616.47450,0.00333
616.70469,0.00324
616.93489,0.00365
617.16510,0.00346
617.39532,0.00255
617.62555,0.00412
617.85579,0.00228
618.08605,0.00375
618.31631,0.00164
618.54659,0.00374
618.77688,0.00213
619.00717,0.00272
619.23748,0.00035
619.46780,0.00342
619.69814,0.00266
619.92848,0.00308
620.15883,0.00271
620.38920,0.00289
620.61957,0.00198
620.84996,0.00295
621.08036,-0.00076
621.31077,0.00401
621.54119,0.00236
621.77162,0.00336
622.00206,0.00160
622.23252,0.00280
622.46298,0.00186
622.69345,0.00241
622.92394,0.00254
623.15444,0.00239
623.38495,0.00227
623.61547,0.00302
623.84600,0.00168
624.07654,0.00282
624.30709,0.00195
624.53766,0.00253
624.76823,0.00081
624.99882,0.00282
625.22941,0.00147
625.46002,0.00242
625.69064,0.00088
625.92127,0.00271
626.15191,0.00155
626.38256,0.00200
626.61322,0.00196
626.84390,0.00301
627.07458,0.00118
627.30528,0.00185
627.53598,0.00145
627.76670,0.00221
627.99743,0.00102
628.22817,0.00269
628.45892,0.00069
628.68968,0.00229
628.92045,0.00087
629.15123,0.00185
629.38203,0.00057
629.61283,0.00256
629.84365,0.00085
630.07447,0.00275
630.30531,0.00096
630.53616,0.00194
630.76702,0.00067
630.99789,0.00148
631.22877,0.00028
631.45966,0.00159
631.69057,0.00141
631.92148,0.00188
632.15240,-0.00009
632.38334,0.00205
632.61429,0.00073
632.84524,0.00137
633.07621,0.00161
633.30719,0.00247
633.53818,0.00044
633.76918,0.00185
634.00019,0.00016
634.23121,0.00150
634.46225,-0.00050
634.69329,0.00216
634.92435,0.00059
635.15541,0.00117
635.38649,0.00082
635.61758,0.00110
635.84867,0.00041
636.07978,-0.00036
636.31090,0.00016
636.54203,0.00180
636.77317,0.00006
637.00433,0.00211
637.23549,0.00060
637.46666,0.00149
637.69785,0.00097
637.92904,0.00040
638.16025,0.00066
638.39146,0.00127
638.62269,0.00030
638.85393,0.00083
639.08518,0.00159
639.31644,0.00026
639.54771,0.00202
639.77899,0.00067
640.01028,0.00217
640.24159,0.00029
640.47290,0.00091
640.70422,0.00126
640.93556,0.00073
641.16690,-0.00128
641.39826,0.00190
641.62963,0.00088
641.86101,0.00122
642.09239,-0.00124
642.32379,0.00203
642.55520,0.00124
642.78662,-0.00013
643.01805,0.00017
643.24950,0.00077
643.48095,0.00002
643.71241,0.00237
643.94389,0.00081
644.17537,0.00123
644.40687,0.00004
644.63837,0.00091
644.86989,-0.00026
645.10142,0.00103
645.33295,-0.00005
645.56450,0.00153
645.79606,-0.00028
646.02763,0.00081
646.25921,0.00119
646.49080,0.00152
646.72240,0.00117
646.95402,0.00110
647.18564,-0.00005
647.41727,0.00167
647.64892,0.00118
647.88057,0.00125
648.11224,0.00009
648.34391,0.00183
648.57560,-0.00039
648.80730,0.00025
649.03901,-0.00017
649.27072,0.00006
649.50245,-0.00004
649.73419,0.00058
649.96594,0.00093
650.19770,0.00174
650.42947,0.00035
650.66126,0.00176
650.89305,0.00026
651.12485,0.00023
651.35666,0.00005
651.58849,0.00134
651.82032,-0.00030
652.05217,0.00116
652.28402,0.00051
652.51589,0.00081
652.74776,0.00005
652.97965,0.00199
653.21155,0.00010
653.44346,0.00109
653.67538,-0.00086
653.90731,0.00092
654.13924,-0.00020
654.37119,-0.00036
654.60316,0.00034
654.83513,0.00158
655.06711,-0.00051
655.29910,0.00140
655.53110,-0.00053
655.76312,0.00181
655.99514,0.00053
656.22717,0.00081
656.45922,-0.00057
656.69127,0.00112
656.92334,0.00045
657.15541,0.00098
657.38750,-0.00085
657.61959,0.00051
657.85170,-0.00088
658.08382,0.00053
658.31595,0.00011
658.54809,0.00026
658.78023,-0.00054
659.01239,0.00152
659.24456,-0.00023
659.47674,0.00095
659.70893,-0.00021
659.94113,0.00035
660.17334,0.00064
660.40557,-0.00017
660.63780,0.00092
660.87004,0.00063
661.10229,-0.00040
661.33455,0.00052
661.56683,-0.00020
661.79911,0.00097
662.03141,0.00095
662.26371,0.00087
662.49603,0.00032
662.72835,0.00005
662.96069,0.00027
663.19303,0.00134
663.42539,-0.00095
663.65775,0.00094
663.89013,-0.00024
664.12252,0.00135
664.35492,0.00066
664.58732,0.00039
664.81974,0.00058
665.05217,0.00154
665.28461,-0.00026
665.51706,-0.00055
665.74952,0.00018
665.98199,0.00091
666.21447,0.00022
666.44696,0.00112
666.67946,-0.00037
666.91197,0.00080
667.14449,0.00032
667.37702,0.00073
667.60956,-0.00029
667.84211,0.00068
668.07467,-0.00031
668.30725,0.00049
668.53983,-0.00098
668.77242,0.00091
669.00502,0.00003
669.23764,0.00099
669.47026,-0.00035
669.70290,0.00058
669.93554,0.00040
670.16819,0.00070
670.40086,-0.00028
670.63353,0.00077
670.86622,-0.00118
671.09891,0.00106
671.33162,-0.00005
671.56433,0.00038
671.79706,-0.00007
672.02979,0.00105
672.26254,-0.00096
672.49530,0.00054
672.72806,-0.00051
672.96084,0.00034
673.19362,-0.00038
673.42642,0.00059
673.65923,-0.00019
673.89205,0.00109
674.12487,-0.00067
674.35771,0.00101
674.59056,0.00063
674.82342,0.00037
675.05628,-0.00055
675.28916,-0.00007
675.52205,-0.00112
675.75495,-0.00014
675.98786,-0.00025
676.22077,0.00071
676.45370,-0.00066
676.68664,-0.00021
676.91959,-0.00050
677.15255,0.00019
677.38552,0.00010
677.61850,0.00043
677.85149,0.00000
678.08449,0.00109
678.31750,-0.00063
678.55051,0.00137
678.78354,-0.00030
679.01658,0.00047
679.24963,-0.00088
679.48269,0.00033
679.71576,-0.00005
679.94884,0.00087
680.18193,-0.00084
680.41503,0.00051
680.64814,-0.00018
680.88126,0.00031
681.11439,-0.00090
681.34753,0.00052
681.58068,-0.00027
681.81384,0.00053
682.04701,0.00000
682.28019,0.00115
682.51338,-0.00053
682.74658,-0.00018
682.97979,-0.00062
683.21301,-0.00022
683.44624,-0.00179
683.67948,0.00015
683.91273,-0.00048
684.14599,-0.00052
684.37926,-0.00061
684.61254,-0.00041
684.84583,-0.00117
685.07913,0.00065
685.31244,-0.00006
685.54576,0.00040
685.77909,-0.00085
686.01243,0.00034
686.24578,-0.00051
686.47914,0.00037
686.71251,-0.00069
686.94589,0.00124
687.17928,-0.00066
687.41268,0.00069
687.64609,-0.00126
687.87951,0.00072
688.11294,0.00001
688.34638,0.00137
688.57982,-0.00016
688.81328,0.00067
689.04675,-0.00170
689.28023,0.00041
689.51372,0.00026
689.74722,0.00031
689.98073,-0.00085
690.21424,0.00044
690.44777,-0.00051
690.68131,0.00062
690.91486,0.00040
691.14842,-0.00032
691.38198,-0.00048
691.61556,0.00090
691.84915,-0.00061
692.08274,0.00088
692.31635,-0.00095
692.54997,0.00044
692.78359,-0.00003
693.01723,0.00107
693.25088,-0.00087
693.48453,-0.00041
693.71820,-0.00004
693.95187,0.00060
694.18556,-0.00110
694.41925,-0.00031
694.65296,-0.00094
694.88667,0.00017
695.12040,-0.00105
695.35413,0.00086
695.58788,-0.00047
695.82163,-0.00019
696.05540,-0.00127
696.28917,-0.00018
696.52295,-0.00117
696.75675,0.00046
696.99055,-0.00083
697.22436,0.00046
697.45818,-0.00101
697.69202,0.00014
697.92586,-0.00069
698.15971,0.00014
698.39357,0.00022
698.62744,-0.00165
698.86132,0.00061
699.09521,0.00028
699.32911,0.00056
699.56302,-0.00077
699.79694,0.00046
700.03087,-0.00040
700.26481,0.00055
700.49876,-0.00173
700.73272,0.00032
700.96669,-0.00115
701.20066,0.00021
701.43465,-0.00112
701.66865,-0.00038
701.90266,-0.00138
702.13667,-0.00061
702.37070,0.00017
702.60473,0.00108
702.83878,-0.00082
703.07284,0.00021
703.30690,-0.00063
703.54097,0.00144
703.77506,-0.00108
704.00915,0.00026
704.24326,-0.00118
704.47737,-0.00006
704.71149,-0.00070
704.94562,0.00039
705.17977,-0.00157
705.41392,0.00048
705.64808,-0.00034
705.88225,0.00014
706.11643,-0.00087
706.35062,0.00075
706.58482,-0.00036
706.81903,0.00079
707.05325,-0.00076
707.28748,0.00009
707.52171,-0.00068
707.75596,0.00033
707.99022,-0.00202
708.22449,0.00144
708.45876,0.00007
708.69305,0.00184
708.92734,-0.00117
709.16165,-0.00070
709.39596,-0.00108
709.63029,0.00047
709.86462,0.00030
710.09896,0.00020
710.33332,-0.00066
710.56768,0.00091
710.80205,-0.00128
711.03643,0.00050
711.27082,-0.00097
711.50522,-0.00057
711.73963,0.00028
711.97405,-0.00020
712.20848,-0.00007
712.44292,0.00096
712.67737,-0.00103
712.91182,0.00074
713.14629,-0.00021
713.38077,-0.00079
713.61525,0.00004
713.84975,0.00042
714.08425,-0.00172
714.31876,0.00080
714.55329,-0.00213
714.78782,-0.00054
715.02236,-0.00141
715.25692,0.00063
715.49148,-0.00070
715.72605,0.00121
715.96063,-0.00051
716.19522,-0.00083
716.42982,-0.00125
716.66443,-0.00020
716.89904,-0.00045
717.13367,-0.00068
717.36831,-0.00030
717.60295,0.00011
717.83761,-0.00059
718.07227,0.00062
718.30695,-0.00138
718.54163,-0.00005
718.77633,-0.00004
719.01103,0.00057
719.24574,0.00031
719.48046,0.00078
719.71519,-0.00040
719.94993,0.00112
720.18468,-0.00115
720.41944,0.00043
720.65421,-0.00102
720.88899,0.00069
721.12377,0.00001
721.35857,0.00088
721.59337,-0.00032
721.82819,-0.00012
722.06301,-0.00275
722.29785,0.00090
722.53269,-0.00122
722.76754,0.00044
723.00240,-0.00209
723.23727,-0.00030
723.47216,-0.00128
723.70704,-0.00077
723.94194,-0.00162
724.17685,0.00060
724.41177,-0.00091
724.64670,0.00026
724.88163,-0.00077
725.11658,-0.00019
725.35153,-0.00076
725.58649,-0.00052
725.82147,-0.00117
726.05645,0.00086
726.29144,-0.00059
726.52644,0.00023
726.76145,-0.00079
726.99647,-0.00031
727.23150,-0.00118
727.46654,-0.00006
727.70158,-0.00058
727.93664,-0.00020
728.17171,-0.00060
728.40678,0.00100
728.64187,-0.00081
728.87696,-0.00052
729.11206,-0.00044
729.34717,0.00113
729.58229,-0.00005
729.81742,0.00066
730.05256,-0.00097
730.28771,0.00019
730.52287,-0.00087
730.75804,0.00051
730.99321,-0.00201
731.22840,0.00051
731.46359,-0.00084
731.69879,0.00013
731.93401,-0.00081
732.16923,0.00146
732.40446,-0.00174
732.63970,-0.00002
732.87495,-0.00127
733.11021,-0.00060
733.34547,-0.00009
733.58075,-0.00010
733.81604,-0.00031
734.05133,0.00036
734.28664,-0.00019
734.52195,0.00003
734.75727,-0.00068
734.99260,0.00004
735.22794,-0.00164
735.46329,0.00004
735.69865,-0.00066
735.93402,0.00023
736.16940,-0.00117
736.40478,-0.00038
736.64018,-0.00125
736.87558,-0.00065
737.11100,-0.00012
737.34642,-0.00019
737.58185,-0.00134
737.81729,0.00002
738.05274,-0.00025
738.28820,0.00019
738.52367,-0.00081
738.75914,0.00134
738.99463,-0.00113
739.23012,0.00091
739.46563,-0.00060
739.70114,-0.00036
739.93666,-0.00098
740.17219,-0.00054
740.40773,-0.00009
740.64328,0.00020
740.87884,-0.00144
741.11441,0.00007
741.34998,-0.00109
741.58557,0.00024
741.82116,-0.00089
742.05676,0.00000
742.29238,-0.00041
742.52800,0.00039
742.76363,-0.00030
742.99927,0.00007
743.23491,-0.00093
743.47057,0.00070
743.70624,-0.00145
743.94191,0.00072
744.17760,-0.00145
744.41329,-0.00049
744.64899,-0.00072
744.88470,-0.00030
745.12042,-0.00133
745.35615,0.00088
745.59189,-0.00041
745.82763,0.00002
746.06339,-0.00127
746.29915,0.00028
746.53493,-0.00117
746.77071,0.00052
747.00650,0.00000
747.24230,-0.00014
747.47811,-0.00007
747.71393,-0.00027
747.94975,-0.00010
748.18559,0.00112
748.42143,-0.00092
748.65728,0.00047
748.89315,0.00014
749.12902,-0.00011
749.36490,-0.00045
749.60079,0.00032
749.83668,-0.00178
750.07259,0.00102
750.30851,0.00000
750.54443,0.00000
750.78036,0.00000
751.01630,0.00000
751.25226,0.00000
751.48821,0.00000
751.72418,0.00000
751.96016,0.00000
752.19615,0.00000
752.43214,0.00000
752.66814,0.00000
752.90416,0.00000
753.14018,0.00000
753.37621,0.00000
753.61225,0.00000
753.84830,0.00000
754.08435,0.00000
754.32042,0.00000
754.55649,0.00000
754.79257,0.00000
755.02867,0.00000
755.26477,0.00000
755.50087,0.00000
755.73699,0.00000
755.97312,0.00000
756.20925,0.00000
756.44540,0.00000
756.68155,0.00000
756.91771,0.00000
757.15388,0.00000
757.39006,0.00000
757.62625,0.00000
757.86245,0.00000
758.09865,0.00000
758.33487,0.00000
758.57109,0.00000
758.80732,0.00000
759.04356,0.00000
759.27981,0.00000
759.51607,0.00000
759.75233,0.00000
759.98861,0.00000
760.22489,0.00000
760.46118,0.00000
760.69748,0.00000
760.93379,0.00000
761.17011,0.00000
761.40644,0.00000
761.64278,0.00000
761.87912,0.00000
762.11547,0.00000
762.35183,0.00000
762.58820,0.00000
762.82458,0.00000
763.06097,0.00000
763.29737,0.00000
763.53377,0.00000
763.77019,0.00000
764.00661,0.00000
764.24304,0.00000
764.47948,0.00000
764.71593,0.00000
764.95238,0.00000
765.18885,0.00000
765.42532,0.00000
765.66180,0.00000
765.89829,0.00000
766.13479,0.00000
766.37130,0.00000
766.60782,0.00000
766.84434,0.00000
767.08088,0.00000
767.31742,0.00000
767.55397,0.00000
767.79053,0.00000
768.02710,0.00000
768.26367,0.00000
768.50026,0.00000
768.73685,0.00000
768.97346,0.00000
769.21007,0.00000
769.44669,0.00000
769.68331,0.00000
769.91995,0.00000
770.15659,0.00000
770.39325,0.00000
770.62991,0.00000
770.86658,0.00000
771.10326,0.00000
771.33995,0.00000
771.57664,0.00000
771.81335,0.00000
772.05006,0.00000
772.28678,0.00000
772.52351,0.00000
772.76025,0.00000
772.99700,0.00000
773.23375,0.00000
773.47052,0.00000
773.70729,0.00000
773.94407,0.00000
774.18086,0.00000
774.41765,0.00000
774.65446,0.00000
774.89127,0.00000
775.12810,0.00000
775.36493,0.00000
775.60177,0.00000
775.83862,0.00000
776.07547,0.00000
776.31234,0.00000
776.54921,0.00000
776.78609,0.00000
777.02298,0.00000
777.25988,0.00000
777.49679,0.00000
777.73370,0.00000
777.97063,0.00000
778.20756,0.00000
778.44450,0.00000
778.68145,0.00000
778.91841,0.00000
779.15537,0.00000
779.39235,0.00000
779.62933,0.00000
779.86632,0.00000
780.10332,0.00000
780.34033,0.00000
780.57734,0.00000
780.81437,0.00000
781.05140,0.00000
781.28844,0.00000
781.52549,0.00000
781.76255,0.00000
781.99961,0.00000
782.23669,0.00000
782.47377,0.00000
782.71086,0.00000
782.94796,0.00000
783.18507,0.00000
783.42218,0.00000
783.65930,0.00000
783.89644,0.00000
784.13358,0.00000
784.37073,0.00000
784.60788,0.00000
784.84505,0.00000
785.08222,0.00000
785.31940,0.00000
785.55659,0.00000
785.79379,0.00000
786.03100,0.00000
786.26821,0.00000
786.50544,0.00000
786.74267,0.00000
786.97991,0.00000
787.21716,0.00000
787.45441,0.00000
787.69168,0.00000
787.92895,0.00000
788.16623,0.00000
788.40352,0.00000
788.64081,0.00000
788.87812,0.00000
789.11543,0.00000
789.35275,0.00000
789.59008,0.00000
789.82742,0.00000
790.06477,0.00000
790.30212,0.00000
790.53949,0.00000
790.77686,0.00000
791.01424,0.00000
791.25162,0.00000
791.48902,0.00000
791.72642,0.00000
791.96383,0.00000
792.20125,0.00000
792.43868,0.00000
792.67612,0.00000
792.91356,0.00000
793.15101,0.00000
793.38847,0.00000
793.62594,0.00000
793.86342,0.00000
794.10090,0.00000
794.33840,0.00000
794.57590,0.00000
794.81341,0.00000
795.05092,0.00000
795.28845,0.00000
795.52598,0.00000
795.76352,0.00000
796.00107,0.00000
796.23863,0.00000
796.47620,0.00000
796.71377,0.00000
796.95135,0.00000
797.18894,0.00000
797.42654,0.00000
797.66415,0.00000
797.90176,0.00000
798.13938,0.00000
798.37701,0.00000
798.61465,0.00000
798.85230,0.00000
799.08995,0.00000
799.32761,0.00000
799.56528,0.00000
799.80296,0.00000
800.04065,0.00000
800.27834,0.00000
800.51605,0.00000
800.75376,0.00000
800.99147,0.00000
801.22920,0.00000
801.46694,0.00000
801.70468,0.00000
801.94243,0.00000
802.18019,0.00000
802.41795,0.00000
802.65573,0.00000
802.89351,0.00000
803.13130,0.00000
803.36910,0.00000
803.60690,0.00000
803.84472,0.00000
804.08254,0.00000
804.32037,0.00000
804.55821,0.00000
804.79605,0.00000
805.03391,0.00000
805.27177,0.00000
805.50964,0.00000
805.74752,0.00000
805.98540,0.00000
806.22330,0.00000
806.46120,0.00000
806.69911,0.00000
806.93702,0.00000
807.17495,0.00000
807.41288,0.00000
807.65082,0.00000
807.88877,0.00000
808.12673,0.00000
808.36469,0.00000
808.60266,0.00000
808.84064,0.00000
809.07863,0.00000
809.31663,0.00000
809.55463,0.00000
809.79264,0.00000
810.03066,0.00000
810.26869,0.00000
810.50672,0.00000
810.74477,0.00000
810.98282,0.00000
811.22088,0.00000
811.45894,0.00000
811.69702,0.00000
811.93510,0.00000
812.17319,0.00000
812.41129,0.00000
812.64939,0.00000
812.88751,0.00000
813.12563,0.00000
813.36376,0.00000
813.60189,0.00000
813.84004,0.00000
814.07819,0.00000
814.31635,0.00000
814.55452,0.00000
814.79269,0.00000
815.03088,0.00000
815.26907,0.00000
815.50727,0.00000
815.74547,0.00000
815.98369,0.00000
816.22191,0.00000
816.46014,0.00000
816.69838,0.00000
816.93662,0.00000
817.17488,0.00000
817.41314,0.00000
817.65141,0.00000
817.88968,0.00000
818.12797,0.00000
818.36626,0.00000
818.60456,0.00000
818.84286,0.00000
819.08118,0.00000
819.31950,0.00000
819.55783,0.00000
819.79617,0.00000
820.03451,0.00000
820.27287,0.00000
820.51123,0.00000
820.74960,0.00000
820.98797,0.00000
821.22636,0.00000
821.46475,0.00000
821.70315,0.00000
821.94155,0.00000
822.17997,0.00000
822.41839,0.00000
822.65682,0.00000
822.89526,0.00000
823.13370,0.00000
823.37216,0.00000
823.61062,0.00000
823.84908,0.00000
824.08756,0.00000
824.32604,0.00000
824.56453,0.00000
824.80303,0.00000
825.04154,0.00000
825.28005,0.00000
825.51857,0.00000
825.75710,0.00000
825.99564,0.00000
826.23418,0.00000
826.47273,0.00000
826.71129,0.00000
826.94986,0.00000
827.18843,0.00000
827.42701,0.00000
827.66560,0.00000
827.90420,0.00000
828.14280,0.00000
828.38141,0.00000
828.62003,0.00000
828.85866,0.00000
829.09730,0.00000
829.33594,0.00000
829.57459,0.00000
829.81324,0.00000
830.05191,0.00000
830.29058,0.00000
830.52926,0.00000
830.76795,0.00000
831.00664,0.00000
831.24534,0.00000
831.48405,0.00000
831.72277,0.00000
831.96149,0.00000
832.20023,0.00000
832.43897,0.00000
832.67771,0.00000
832.91647,0.00000
833.15523,0.00000
833.39400,0.00000
833.63277,0.00000
833.87156,0.00000
834.11035,0.00000
834.34915,0.00000
834.58796,0.00000
834.82677,0.00000
835.06559,0.00000
835.30442,0.00000
835.54326,0.00000
835.78210,0.00000
836.02095,0.00000
836.25981,0.00000
836.49867,0.00000
836.73755,0.00000
836.97643,0.00000
837.21532,0.00000
837.45421,0.00000
837.69311,0.00000
837.93203,0.00000
838.17094,0.00000
838.40987,0.00000
838.64880,0.00000
838.88774,0.00000
839.12669,0.00000
839.36564,0.00000
839.60460,0.00000
839.84357,0.00000
840.08255,0.00000
840.32153,0.00000
840.56052,0.00000
840.79952,0.00000
841.03853,0.00000
841.27754,0.00000
841.51656,0.00000
841.75559,0.00000
841.99462,0.00000
842.23367,0.00000
842.47272,0.00000
842.71177,0.00000
842.95084,0.00000
843.18991,0.00000
843.42899,0.00000
843.66807,0.00000
843.90717,0.00000
844.14627,0.00000
844.38538,0.00000
844.62449,0.00000
844.86361,0.00000
845.10274,0.00000
845.34188,0.00000
845.58102,0.00000
845.82018,0.00000
846.05934,0.00000
846.29850,0.00000
846.53767,0.00000
846.77685,0.00000
847.01604,0.00000
847.25524,0.00000
847.49444,0.00000
847.73365,0.00000
847.97287,0.00000
848.21209,0.00000
848.45132,0.00000
848.69056,0.00000
848.92980,0.00000
849.16906,0.00000
849.40832,0.00000
849.64758,0.00000
849.88686,0.00000
850.12614,0.00000
850.36543,0.00000
850.60472,0.00000
850.84403,0.00000
851.08334,0.00000
851.32265,0.00000
851.56198,0.00000
851.80131,0.00000
852.04065,0.00000
852.27999,0.00000
852.51935,0.00000
852.75871,0.00000
852.99807,0.00000
853.23745,0.00000
853.47683,0.00000
853.71622,0.00000
853.95561,0.00000
854.19502,0.00000
854.43443,0.00000
854.67384,0.00000
854.91327,0.00000
855.15270,0.00000
855.39214,0.00000
855.63158,0.00000
855.87103,0.00000
856.11049,0.00000
856.34996,0.00000
856.58943,0.00000
856.82892,0.00000
857.06840,0.00000
857.30790,0.00000
857.54740,0.00000
857.78691,0.00000
858.02642,0.00000
858.26595,0.00000
858.50548,0.00000
858.74502,0.00000
858.98456,0.00000
859.22411,0.00000
859.46367,0.00000
859.70323,0.00000
859.94281,0.00000
860.18239,0.00000
860.42197,0.00000
860.66156,0.00000
860.90116,0.00000
861.14077,0.00000
861.38039,0.00000
861.62001,0.00000
861.85964,0.00000
862.09927,0.00000
862.33891,0.00000
862.57856,0.00000
862.81822,0.00000
863.05788,0.00000
863.29755,0.00000
863.53723,0.00000
863.77691,0.00000
864.01660,0.00000
864.25630,0.00000
864.49601,0.00000
864.73572,0.00000
864.97544,0.00000
865.21516,0.00000
865.45489,0.00000
865.69463,0.00000
865.93438,0.00000
866.17413,0.00000
866.41389,0.00000
866.65366,0.00000
866.89343,0.00000
867.13321,0.00000
867.37300,0.00000
867.61280,0.00000
867.85260,0.00000
868.09241,0.00000
868.33222,0.00000
868.57204,0.00000
868.81187,0.00000
869.05171,0.00000
869.29155,0.00000
869.53140,0.00000
869.77126,0.00000
870.01112,0.00000
870.25099,0.00000
870.49087,0.00000
870.73075,0.00000
870.97064,0.00000
871.21054,0.00000
871.45044,0.00000
871.69035,0.00000
871.93027,0.00000
872.17020,0.00000
872.41013,0.00000
872.65007,0.00000
872.89001,0.00000
873.12996,0.00000
873.36992,0.00000
873.60989,0.00000
873.84986,0.00000
874.08984,0.00000
874.32982,0.00000
874.56982,0.00000
874.80982,0.00000
875.04982,0.00000
875.28983,0.00000
875.52985,0.00000
875.76988,0.00000
876.00991,0.00000
876.24995,0.00000
876.49000,0.00000
876.73005,0.00000
876.97011,0.00000
877.21018,0.00000
877.45025,0.00000
877.69033,0.00000
877.93042,0.00000
878.17051,0.00000
878.41061,0.00000
878.65072,0.00000
878.89084,0.00000
879.13096,0.00000
879.37108,0.00000
879.61122,0.00000
879.85136,0.00000
880.09150,0.00000
880.33166,0.00000
880.57182,0.00000
880.81199,0.00000
881.05216,0.00000
881.29234,0.00000
881.53253,0.00000
881.77272,0.00000
882.01292,0.00000
882.25313,0.00000
882.49334,0.00000
882.73356,0.00000
882.97379,0.00000
883.21402,0.00000
883.45426,0.00000
883.69451,0.00000
883.93476,0.00000
884.17502,0.00000
884.41529,0.00000
884.65556,0.00000
884.89584,0.00000
885.13613,0.00000
885.37642,0.00000
885.61672,0.00000
885.85703,0.00000
886.09734,0.00000
886.33766,0.00000
886.57799,0.00000
886.81832,0.00000
887.05866,0.00000
887.29901,0.00000
887.53936,0.00000
887.77972,0.00000
888.02008,0.00000
888.26045,0.00000
888.50083,0.00000
888.74122,0.00000
888.98161,0.00000
889.22201,0.00000
889.46241,0.00000
889.70282,0.00000
889.94324,0.00000
890.18366,0.00000
890.42409,0.00000
890.66453,0.00000
890.90497,0.00000
891.14542,0.00000
891.38588,0.00000
891.62634,0.00000
891.86681,0.00000
892.10729,0.00000
892.34777,0.00000
892.58826,0.00000
892.82876,0.00000
893.06926,0.00000
893.30977,0.00000
893.55028,0.00000
893.79080,0.00000
894.03133,0.00000
894.27186,0.00000
894.51241,0.00000
894.75295,0.00000
894.99351,0.00000
895.23407,0.00000
895.47463,0.00000
895.71520,0.00000
895.95578,0.00000
896.19637,0.00000
896.43696,0.00000
896.67756,0.00000
896.91816,0.00000
897.15878,0.00000
897.39939,0.00000
897.64002,0.00000
897.88065,0.00000
898.12128,0.00000
898.36193,0.00000
898.60258,0.00000
898.84323,0.00000
899.08389,0.00000
899.32456,0.00000
899.56524,0.00000
899.80592,0.00000
900.04661,0.00000
900.28730,0.00000
900.52800,0.00000
900.76871,0.00000
901.00942,0.00000
901.25014,0.00000
901.49087,0.00000
901.73160,0.00000
901.97234,0.00000
902.21308,0.00000
902.45383,0.00000
902.69459,0.00000
902.93535,0.00000
903.17612,0.00000
903.41690,0.00000
903.65768,0.00000
903.89847,0.00000
904.13926,0.00000
904.38006,0.00000
904.62087,0.00000
904.86169,0.00000
905.10251,0.00000
905.34333,0.00000
905.58416,0.00000
905.82500,0.00000
906.06585,0.00000
906.30670,0.00000
906.54756,0.00000
906.78842,0.00000
907.02929,0.00000
907.27017,0.00000
907.51105,0.00000
907.75194,0.00000
907.99283,0.00000
908.23373,0.00000
908.47464,0.00000
908.71555,0.00000
908.95647,0.00000
909.19740,0.00000
909.43833,0.00000
909.67927,0.00000
909.92021,0.00000
910.16116,0.00000
910.40212,0.00000
910.64308,0.00000
910.88405,0.00000
911.12503,0.00000
911.36601,0.00000
911.60700,0.00000
911.84799,0.00000
912.08899,0.00000
912.33000,0.00000
912.57101,0.00000
912.81203,0.00000
913.05305,0.00000
913.29408,0.00000
913.53512,0.00000
913.77616,0.00000
914.01721,0.00000
914.25827,0.00000
914.49933,0.00000
914.74039,0.00000
914.98147,0.00000
915.22255,0.00000
915.46363,0.00000
915.70472,0.00000
915.94582,0.00000
916.18693,0.00000
916.42804,0.00000
916.66915,0.00000
916.91027,0.00000
917.15140,0.00000
917.39254,0.00000
917.63368,0.00000
917.87482,0.00000
918.11597,0.00000
918.35713,0.00000
918.59830,0.00000
918.83947,0.00000
919.08064,0.00000
919.32183,0.00000
919.56301,0.00000
919.80421,0.00000
920.04541,0.00000
920.28662,0.00000
920.52783,0.00000
920.76905,0.00000
921.01027,0.00000
921.25150,0.00000
921.49274,0.00000
921.73398,0.00000
921.97523,0.00000
922.21648,0.00000
922.45774,0.00000
922.69901,0.00000
922.94028,0.00000
923.18156,0.00000
923.42285,0.00000
923.66414,0.00000
923.90543,0.00000
924.14673,0.00000
924.38804,0.00000
924.62936,0.00000
924.87068,0.00000
925.11200,0.00000
925.35333,0.00000
925.59467,0.00000
925.83602,0.00000
926.07737,0.00000
926.31872,0.00000
926.56008,0.00000
926.80145,0.00000
927.04282,0.00000
927.28420,0.00000
927.52559,0.00000
927.76698,0.00000
928.00837,0.00000
928.24978,0.00000
928.49119,0.00000
928.73260,0.00000
928.97402,0.00000
929.21545,0.00000
929.45688,0.00000
929.69832,0.00000
929.93976,0.00000
930.18121,0.00000
930.42267,0.00000
930.66413,0.00000
930.90559,0.00000
931.14707,0.00000
931.38855,0.00000
931.63003,0.00000
931.87152,0.00000
932.11302,0.00000
932.35452,0.00000
932.59603,0.00000
932.83754,0.00000
933.07906,0.00000
933.32059,0.00000
933.56212,0.00000
933.80365,0.00000
934.04520,0.00000
934.28674,0.00000
934.52830,0.00000
934.76986,0.00000
935.01142,0.00000
935.25300,0.00000
935.49457,0.00000
935.73616,0.00000
935.97774,0.00000
936.21934,0.00000
936.46094,0.00000
936.70254,0.00000
936.94416,0.00000
937.18577,0.00000
937.42740,0.00000
937.66903,0.00000
937.91066,0.00000
938.15230,0.00000
938.39395,0.00000
938.63560,0.00000
938.87726,0.00000
939.11892,0.00000
939.36059,0.00000
939.60226,0.00000
939.84394,0.00000
940.08563,0.00000
940.32732,0.00000
940.56902,0.00000
940.81072,0.00000
941.05243,0.00000
941.29414,0.00000
941.53586,0.00000
941.77759,0.00000
942.01932,0.00000
942.26106,0.00000
942.50280,0.00000
942.74455,0.00000
942.98630,0.00000
943.22806,0.00000
943.46983,0.00000
943.71160,0.00000
943.95337,0.00000
944.19516,0.00000
944.43694,0.00000
944.67874,0.00000
944.92054,0.00000
945.16234,0.00000
945.40415,0.00000
945.64596,0.00000
945.88779,0.00000
946.12961,0.00000
946.37145,0.00000
946.61328,0.00000
946.85513,0.00000
947.09698,0.00000
947.33883,0.00000
947.58069,0.00000
947.82256,0.00000
948.06443,0.00000
948.30630,0.00000
948.54819,0.00000
948.79007,0.00000
949.03197,0.00000
949.27387,0.00000
949.51577,0.00000
949.75768,0.00000
949.99960,0.00000
950.24152,0.00000
950.48344,0.00000
950.72538,0.00000
950.96731,0.00000
951.20926,0.00000
951.45121,0.00000
951.69316,0.00000
951.93512,0.00000
952.17708,0.00000
952.41906,0.00000
952.66103,0.00000
952.90301,0.00000
953.14500,0.00000
953.38699,0.00000
953.62899,0.00000
953.87099,0.00000
954.11300,0.00000
954.35502,0.00000
954.59704,0.00000
954.83906,0.00000
955.08109,0.00000
955.32313,0.00000
955.56517,0.00000
955.80722,0.00000
956.04927,0.00000
956.29133,0.00000
956.53339,0.00000
956.77546,0.00000
957.01753,0.00000
957.25961,0.00000
957.50170,0.00000
957.74379,0.00000
957.98588,0.00000
958.22798,0.00000
958.47009,0.00000
958.71220,0.00000
958.95432,0.00000
959.19644,0.00000
959.43857,0.00000
959.68070,0.00000
959.92284,0.00000
960.16498,0.00000
960.40713,0.00000
960.64929,0.00000
960.89145,0.00000
961.13361,0.00000
961.37578,0.00000
961.61796,0.00000
961.86014,0.00000
962.10233,0.00000
962.34452,0.00000
962.58671,0.00000
962.82892,0.00000
963.07112,0.00000
963.31334,0.00000
963.55556,0.00000
963.79778,0.00000
964.04001,0.00000
964.28224,0.00000
964.52448,0.00000
964.76673,0.00000
965.00898,0.00000
965.25123,0.00000
965.49349,0.00000
965.73576,0.00000
965.97803,0.00000
966.22031,0.00000
966.46259,0.00000
966.70488,0.00000
966.94717,0.00000
967.18946,0.00000
967.43177,0.00000
967.67408,0.00000
967.91639,0.00000
968.15871,0.00000
968.40103,0.00000
968.64336,0.00000
968.88569,0.00000
969.12803,0.00000
969.37038,0.00000
969.61273,0.00000
969.85508,0.00000
970.09744,0.00000
970.33980,0.00000
970.58218,0.00000
970.82455,0.00000
971.06693,0.00000
971.30932,0.00000
971.55171,0.00000
971.79410,0.00000
972.03651,0.00000
972.27891,0.00000
972.52132,0.00000
972.76374,0.00000
973.00616,0.00000
973.24859,0.00000
973.49102,0.00000
973.73346,0.00000
973.97590,0.00000
974.21835,0.00000
974.46080,0.00000
974.70326,0.00000
974.94572,0.00000
975.18819,0.00000
975.43066,0.00000
975.67314,0.00000
975.91562,0.00000
976.15811,0.00000
976.40061,0.00000
976.64310,0.00000
976.88561,0.00000
977.12812,0.00000
977.37063,0.00000
977.61315,0.00000
977.85567,0.00000
978.09820,0.00000
978.34074,0.00000
978.58327,0.00000
978.82582,0.00000
979.06837,0.00000
979.31092,0.00000
979.55348,0.00000
979.79604,0.00000
980.03861,0.00000
980.28119,0.00000
980.52377,0.00000
980.76635,0.00000
981.00894,0.00000
981.25154,0.00000
981.49413,0.00000
981.73674,0.00000
981.97935,0.00000
982.22196,0.00000
982.46458,0.00000
982.70721,0.00000
982.94983,0.00000
983.19247,0.00000
983.43511,0.00000
983.67775,0.00000
983.92040,0.00000
984.16306,0.00000
984.40571,0.00000
984.64838,0.00000
984.89105,0.00000
985.13372,0.00000
985.37640,0.00000
985.61908,0.00000
985.86177,0.00000
986.10447,0.00000
986.34716,0.00000
986.58987,0.00000
986.83258,0.00000
987.07529,0.00000
987.31801,0.00000
987.56073,0.00000
987.80346,0.00000
988.04619,0.00000
988.28893,0.00000
988.53167,0.00000
988.77442,0.00000
989.01717,0.00000
989.25993,0.00000
989.50269,0.00000
989.74546,0.00000
989.98823,0.00000
990.23101,0.00000
990.47379,0.00000
990.71657,0.00000
990.95937,0.00000
991.20216,0.00000
991.44496,0.00000
991.68777,0.00000
991.93058,0.00000
992.17339,0.00000
992.41621,0.00000
992.65904,0.00000
992.90187,0.00000
993.14470,0.00000
993.38754,0.00000
993.63039,0.00000
993.87324,0.00000
994.11609,0.00000
994.35895,0.00000
994.60181,0.00000
994.84468,0.00000
995.08755,0.00000
995.33043,0.00000
995.57331,0.00000
995.81620,0.00000
996.05909,0.00000
996.30199,0.00000
996.54489,0.00000
996.78780,0.00000
997.03071,0.00000
997.27363,0.00000
997.51655,0.00000
997.75947,0.00000
998.00240,0.00000
998.24534,0.00000
998.48828,0.00000
998.73122,0.00000
998.97417,0.00000
999.21712,0.00000
999.46008,0.00000
999.70304,0.00000
999.94601,0.00000
1000.18898,0.00000
1000.43196,0.00000
1000.67494,0.00000
1000.91793,0.00000
1001.16092,0.00000
1001.40392,0.00000
1001.64692,0.00000
1001.88992,0.00000
1002.13293,0.00000
1002.37595,0.00000
1002.61897,0.00000
1002.86199,0.00000
1003.10502,0.00000
1003.34805,0.00000
1003.59109,0.00000
1003.83413,0.00000
1004.07718,0.00000
1004.32023,0.00000
1004.56329,0.00000
1004.80635,0.00000
1005.04941,0.00000
1005.29248,0.00000
1005.53556,0.00000
1005.77864,0.00000
1006.02172,0.00000
1006.26481,0.00000
1006.50790,0.00000
1006.75100,0.00000
1006.99410,0.00000
1007.23721,0.00000
1007.48032,0.00000
1007.72344,0.00000
1007.96656,0.00000
1008.20968,0.00000
1008.45281,0.00000
1008.69595,0.00000
1008.93909,0.00000
1009.18223,0.00000
1009.42538,0.00000
1009.66853,0.00000
1009.91169,0.00000
1010.15485,0.00000
1010.39801,0.00000
1010.64118,0.00000
1010.88436,0.00000
1011.12754,0.00000
1011.37072,0.00000
1011.61391,0.00000
1011.85710,0.00000
1012.10030,0.00000
1012.34350,0.00000
1012.58671,0.00000
1012.82992,0.00000
1013.07314,0.00000
1013.31636,0.00000
1013.55958,0.00000
1013.80281,0.00000
1014.04604,0.00000
1014.28928,0.00000
1014.53252,0.00000
1014.77577,0.00000
1015.01902,0.00000
1015.26228,0.00000
1015.50554,0.00000
1015.74880,0.00000
1015.99207,0.00000
1016.23535,0.00000
1016.47862,0.00000
1016.72191,0.00000
1016.96519,0.00000
1017.20848,0.00000
1017.45178,0.00000
1017.69508,0.00000
1017.93838,0.00000
1018.18169,0.00000
1018.42500,0.00000
1018.66832,0.00000
1018.91164,0.00000
1019.15497,0.00000
1019.39830,0.00000
1019.64164,0.00000
1019.88498,0.00000
1020.12832,0.00000
1020.37167,0.00000
1020.61502,0.00000
1020.85838,0.00000
1021.10174,0.00000
1021.34510,0.00000
1021.58847,0.00000
1021.83185,0.00000
1022.07523,0.00000
1022.31861,0.00000
1022.56200,0.00000
1022.80539,0.00000
1023.04878,0.00000
1023.29218,0.00000
1023.53559,0.00000
1023.77900,0.00000
1024.02241,0.00000
1024.26583,0.00000
1024.50925,0.00000
1024.75268,0.00000
1024.99611,0.00000
1025.23954,0.00000
1025.48298,0.00000
1025.72642,0.00000
1025.96987,0.00000
1026.21332,0.00000
1026.45678,0.00000
1026.70024,0.00000
1026.94370,0.00000
1027.18717,0.00000
1027.43064,0.00000