Downloaded from “FILMETRICS”,http://www.filmetricsinc.jp/refractive-index-database
Wavelength(nm),k
330,1.002586E-006
333.12,0.000000871
336.89,0.00000076
340.65,0.000000683
344.41,0.000000627
348.17,0.000000588
351.93,0.00000056
355.68,0.00000054
359.43,0.000000525
363.18,0.000000514
366.93,0.000000506
370.68,0.0000005
374.42,0.000000495
378.16,0.000000492
381.91,0.000000489
385.64,0.000000487
389.38,0.000000484
393.11,0.000000483
396.85,0.000000481
400.58,0.00000048
404.31,0.000000478
408.03,0.000000477
411.76,0.000000476
415.48,0.000000475
419.2,0.000000474
422.92,0.000000473
426.63,0.000000472
430.35,0.000000471
434.06,0.000000469
437.77,0.000000468
441.48,0.000000467
445.18,0.000000466
448.89,0.000000465
452.59,0.000000464
458.5,0.000000463
462.2,0.000000462
465.9,0.000000461
469.59,0.000000459
473.28,0.000000458
476.97,0.000000457
480.66,0.000000456
484.34,0.000000455
488.02,0.000000454
491.7,0.000000453
495.38,0.000000452
499.06,0.000000451
502.73,0.00000045
506.4,0.000000449
510.08,0.000000448
513.74,0.000000447
517.41,0.000000445
521.07,0.000000444
524.74,0.000000443
528.4,0.000000442
532.05,0.000000441
535.71,0.00000044
539.36,0.000000439
543.02,0.000000438
546.67,0.000000437
550.31,0.000000435
553.96,0.000000434
557.6,0.000000433
561.25,0.000000432
564.89,0.000000431
568.52,0.00000043
572.16,0.000000429
575.79,0.000000427
579.43,0.000000426
583.06,0.000000425
586.68,0.000000424
590.31,0.000000423
593.93,0.000000422
597.55,0.000000421
601.17,0.000000419
604.79,0.000000418
608.41,0.000000417
612.02,0.000000416
615.63,0.000000415
619.24,0.000000414
622.85,0.000000413
626.45,0.000000411
630.06,0.00000041
633.66,0.000000409
637.26,0.000000408
640.86,0.000000407
644.45,0.000000406
648.04,0.000000405
651.64,0.000000403
655.22,0.000000402
658.81,0.000000401
662.4,0.0000004
665.98,0.000000399
669.56,0.000000398
673.14,0.000000397
676.72,0.000000396
680.29,0.000000394
683.86,0.000000393
687.44,0.000000392
691,0.000000391
694.57,0.00000039
698.14,0.000000389
701.7,0.000000388
705.26,0.000000387
708.82,0.000000385
712.38,0.000000384
715.93,0.000000383
719.48,0.000000382
723.03,0.000000381
726.58,0.00000038
730.13,0.000000379
733.67,0.000000378
737.22,0.000000377
740.76,0.000000376
744.3,0.000000375
747.83,0.000000374
751.37,0.000000373
754.9,0.000000371
758.43,0.00000037
761.96,0.000000369
765.48,0.000000368
769.01,0.000000367
772.53,0.000000366
776.05,0.000000365
779.57,0.000000364
783.09,0.000000363
786.6,0.000000362
790.11,0.000000361
793.62,0.00000036
797.13,0.000000359
800.64,0.000000358
804.14,0.000000357
807.64,0.000000356
811.14,0.000000355
814.64,0.000000354
818.14,0.000000353
821.63,0.000000352
825.12,0.000000351
828.61,0.00000035
832.1,0.000000349
835.59,0.000000348
839.07,0.000000347
842.55,0.000000346
846.03,0.000000345
849.51,0.000000344
852.98,0.000000343
856.46,0.000000342
861.32,0.000000341
866.17,0.00000034
869.64,0.000000339
873.1,0.000000338
876.57,0.000000337
880.03,0.000000336
883.48,0.000000335
886.94,0.000000334
890.39,0.000000333
893.84,0.000000332
897.29,0.000000331
900.74,0.000000331
904.19,0.00000033
907.63,0.000000329
911.07,0.000000328
914.51,0.000000327
917.95,0.000000326
921.39,0.000000325
924.82,0.000000324
928.25,0.000000324
931.68,0.000000323
935.11,0.000000322
938.53,0.000000321
941.96,0.00000032
946.06,0.000000319
950.85,0.000000318
955.63,0.000000317
960.41,0.000000316
965.18,0.000000314
969.95,0.000000313
974.72,0.000000312
979.53,0.000000311
984.92,0.00000031
990.35,0.000000308
995.1,0.000000307
999.84,0.000000306
1004.6,0.000000305
1009.5,0.000000304
1014.7,0.000000303
1019.5,0.000000302
1024.2,0.000000301
1028.9,0.0000003
1034.3,0.000000298
1039,0.000000297
1043.7,0.000000296
1048.4,0.000000295
1053.1,0.000000294
1057.8,0.000000293
1062.5,0.000000292
1067.2,0.000000291
1071.9,0.00000029
1077.2,0.000000289
1081.9,0.000000288
1087.3,0.000000287
1092.1,0.000000286
1097.2,0.000000285
1106.1,0.000000283
1121.6,0.00000028
1137.1,0.000000277
1152.5,0.000000274
1167.9,0.000000271
1183.3,0.000000268
1198.7,0.000000265
1214,0.000000263
1229.3,0.00000026
1244.6,0.000000257
1259.9,0.000000255
1275.1,0.000000252
1290.4,0.00000025
1305.5,0.000000247
1320.7,0.000000245
1335.8,0.000000242
1351,0.00000024
1366,0.000000238
1381.1,0.000000235
1396.1,0.000000233
1411.2,0.000000231
1426.1,0.000000229
1441.1,0.000000227
1456,0.000000225
1471,0.000000223
1485.8,0.000000221
1500.7,0.000000219
1515.5,0.000000217
1530.3,0.000000215
1545.1,0.000000214
1559.9,0.000000212
1574.6,0.00000021
1589.3,0.000000208
1604,0.000000207
1618.7,0.000000205
1633.3,0.000000203
1647.9,0.000000202
1662.5,0.0000002
1677,0.000000199
1691.6,0.000000197
1706.1,0.000000195
1710,0
1715,0
1720,0
1725,0
1730,0
1735,0
1740,0
1745,0
1750,0
1755,0
1760,0
1765,0
1770,0
1775,0
1780,0
1785,0
1790,0
1795,0
1800,0
1805,0
1810,0
1815,0
1820,0
1825,0
1830,0
1835,0
1840,0
1845,0
1850,0
1855,0
1860,0
1865,0
1870,0
1875,0
1880,0
1885,0
1890,0
1895,0
1900,0
1905,0
1910,0
1915,0
1920,0
1925,0
1930,0
1935,0
1940,0
1945,0
1950,0
1955,0
1960,0
1965,0
1970,0
1975,0
1980,0
1985,0
1990,0
1995,0
2000,0
2005,0
2010,0
2015,0
2020,0
2025,0
2030,0
2035,0
2040,0
2045,0
2050,0
2055,0
2060,0
2065,0
2070,0
2075,0
2080,0
2085,0
2090,0
2095,0
2100,0
2105,0
2110,0
2115,0
2120,0
2125,0
2130,0
2135,0
2140,0
2145,0
2150,0
2155,0
2160,0
2165,0
2170,0
2175,0
2180,0
2185,0
2190,0
2195,0
2200,0
2205,0
2210,0
2215,0
2220,0
2225,0
2230,0
2235,0
2240,0
2245,0
2250,0
2255,0
2260,0
2265,0
2270,0
2275,0
2280,0
2285,0
2290,0
2295,0
2300,0
2305,0
2310,0
2315,0
2320,0
2325,0
2330,0
2335,0
2340,0
2345,0
2350,0
2355,0
2360,0
2365,0
2370,0
2375,0
2380,0
2385,0
2390,0
2395,0
2400,0
2405,0
2410,0
2415,0
2420,0
2425,0
2430,0
2435,0
2440,0
2445,0
2450,0
2455,0
2460,0
2465,0
2470,0
2475,0
2480,0
2485,0
2490,0
2495,0
2500,0
